 ,stack,counts,err
1,1,568817.000,754.200
2,2,126321.000,355.417
3,3,99826.000,315.953
4,4,62507.000,250.014
5,5,64338.000,253.649
6,6,55715.000,236.040
7,7,52875.000,229.946
8,8,51212.000,226.301
9,9,48151.000,219.433
10,10,45791.000,213.988
11,11,46369.000,215.335
12,12,45104.000,212.377
13,13,42711.000,206.666
14,14,41849.000,204.570
15,15,33908.000,184.141
16,16,34931.000,186.898
17,17,41313.000,203.256
18,18,41975.000,204.878
19,19,40719.000,201.789
20,20,40768.000,201.911
21,21,40311.000,200.776
22,22,39926.000,199.815
23,23,40197.000,200.492
24,24,39131.000,197.816
25,25,39247.000,198.109
26,26,39379.000,198.441
27,27,39787.000,199.467
28,28,38749.000,196.848
29,29,37704.000,194.175
30,30,38769.000,196.898
31,31,38403.000,195.967
32,32,35603.000,188.688
33,33,36247.000,190.386
34,34,38315.000,195.742
35,35,38168.000,195.366
36,36,38489.000,196.186
37,37,38659.000,196.619
38,38,37477.000,193.590
39,39,37635.000,193.997
40,40,37755.000,194.306
41,41,37374.000,193.324
42,42,37025.000,192.419
43,43,36906.000,192.109
44,44,37158.000,192.764
45,45,37444.000,193.505
46,46,37104.000,192.624
47,47,37254.000,193.013
48,48,36881.000,192.044
49,49,36919.000,192.143
50,50,36835.000,191.924
51,51,36649.000,191.439
52,52,36815.000,191.872
53,53,36936.000,192.187
54,54,36503.000,191.058
55,55,36880.000,192.042
56,56,37010.000,192.380
57,57,37007.000,192.372
58,58,36916.000,192.135
59,59,36526.000,191.118
60,60,36395.000,190.775
61,61,36817.000,191.878
62,62,36757.000,191.721
63,63,35793.000,189.190
64,64,36608.000,191.332
65,65,36237.000,190.360
66,66,36801.000,191.836
67,67,36864.000,192.000
68,68,36556.000,191.196
69,69,37112.000,192.645
70,70,36165.000,190.171
71,71,36866.000,192.005
72,72,36084.000,189.958
73,73,37011.000,192.382
74,74,36625.000,191.377
75,75,36342.000,190.636
76,76,36269.000,190.444
77,77,36725.000,191.638
78,78,36522.000,191.107
79,79,36012.000,189.768
80,80,36889.000,192.065
81,81,36652.000,191.447
82,82,37359.000,193.285
83,83,35895.000,189.460
84,84,36793.000,191.815
85,85,36463.000,190.953
86,86,37072.000,192.541
87,87,37064.000,192.520
88,88,36858.000,191.984
89,89,37270.000,193.054
90,90,36889.000,192.065
91,91,37079.000,192.559
92,92,36781.000,191.784
93,93,36685.000,191.533
94,94,36919.000,192.143
95,95,37527.000,193.719
96,96,37557.000,193.796
97,97,37461.000,193.548
98,98,37409.000,193.414
99,99,37517.000,193.693
100,100,37360.000,193.287
101,101,37449.000,193.517
102,102,38145.000,195.307
103,103,37320.000,193.184
104,104,36948.000,192.219
105,105,37517.000,193.693
106,106,37432.000,193.474
107,107,36176.000,190.200
108,108,37025.000,192.419
109,109,36614.000,191.348
110,110,36182.000,190.216
111,111,36845.000,191.951
112,112,36367.000,190.701
113,113,37183.000,192.829
114,114,36053.000,189.876
115,115,36313.000,190.560
116,116,36253.000,190.402
117,117,36630.000,191.390
118,118,36799.000,191.831
119,119,36141.000,190.108
120,120,35978.000,189.679
121,121,36144.000,190.116
122,122,35707.000,188.963
123,123,36005.000,189.750
124,124,36662.000,191.473
125,125,35590.000,188.653
126,126,36571.000,191.235
127,127,36289.000,190.497
128,128,36171.000,190.187
129,129,36164.000,190.168
130,130,36272.000,190.452
131,131,36311.000,190.554
132,132,36162.000,190.163
133,133,36704.000,191.583
134,134,36601.000,191.314
135,135,36655.000,191.455
136,136,36970.000,192.276
137,137,36968.000,192.271
138,138,37114.000,192.650
139,139,37341.000,193.238
140,140,36554.000,191.191
141,141,37841.000,194.528
142,142,37399.000,193.388
143,143,37609.000,193.930
144,144,37458.000,193.541
145,145,38738.000,196.820
146,146,37951.000,194.810
147,147,38317.000,195.747
148,148,39092.000,197.717
149,149,38597.000,196.461
150,150,38880.000,197.180
151,151,39321.000,198.295
152,152,38999.000,197.482
153,153,39756.000,199.389
154,154,40607.000,201.512
155,155,40238.000,200.594
156,156,40498.000,201.241
157,157,41381.000,203.423
158,158,40798.000,201.985
159,159,41734.000,204.289
160,160,41871.000,204.624
161,161,42116.000,205.222
162,162,42962.000,207.273
163,163,43616.000,208.844
164,164,44386.000,210.680
165,165,44239.000,210.331
166,166,44092.000,209.981
167,167,45094.000,212.353
168,168,44754.000,211.551
169,169,45307.000,212.854
170,170,45826.000,214.070
171,171,46596.000,215.861
172,172,48047.000,219.196
173,173,47327.000,217.548
174,174,48412.000,220.027
175,175,48623.000,220.506
176,176,48930.000,221.201
177,177,49124.000,221.639
178,178,50562.000,224.860
179,179,50182.000,224.013
180,180,51485.000,226.903
181,181,51725.000,227.431
182,182,53165.000,230.575
183,183,52341.000,228.782
184,184,53396.000,231.076
185,185,53615.000,231.549
186,186,54637.000,233.746
187,187,55280.000,235.117
188,188,55597.000,235.790
189,189,56730.000,238.181
190,190,58285.000,241.423
191,191,58665.000,242.209
192,192,58476.000,241.818
193,193,58879.000,242.650
194,194,59340.000,243.598
195,195,60421.000,245.807
196,196,60783.000,246.542
197,197,61629.000,248.252
198,198,61744.000,248.483
199,199,62110.000,249.219
200,200,62271.000,249.542
201,201,63552.000,252.095
202,202,64287.000,253.549
203,203,64246.000,253.468
204,204,64943.000,254.839
205,205,66253.000,257.397
206,206,65185.000,255.314
207,207,66066.000,257.033
208,208,66696.000,258.256
209,209,67777.000,260.340
210,210,67342.000,259.503
211,211,67111.000,259.058
212,212,67439.000,259.690
213,213,67716.000,260.223
214,214,69558.000,263.739
215,215,69577.000,263.775
216,216,70559.000,265.629
217,217,70597.000,265.701
218,218,71696.000,267.761
219,219,72256.000,268.805
220,220,72572.000,269.392
221,221,73173.000,270.505
222,222,72688.000,269.607
223,223,73743.000,271.557
224,224,74198.000,272.393
225,225,74152.000,272.309
226,226,75506.000,274.784
227,227,74821.000,273.534
228,228,76294.000,276.214
229,229,77554.000,278.485
230,230,78245.000,279.723
231,231,78163.000,279.576
232,232,78994.000,281.059
233,233,79920.000,282.701
234,234,79948.000,282.751
235,235,80147.000,283.102
236,236,80202.000,283.200
237,237,79739.000,282.381
238,238,80296.000,283.365
239,239,81697.000,285.827
240,240,80954.000,284.524
241,241,81224.000,284.998
242,242,80774.000,284.208
243,243,79770.000,282.436
244,244,80069.000,282.965
245,245,80469.000,283.671
246,246,80420.000,283.584
247,247,79945.000,282.745
248,248,79319.000,281.636
249,249,80912.000,284.450
250,250,80958.000,284.531
251,251,80599.000,283.900
252,252,80694.000,284.067
253,253,80808.000,284.267
254,254,80498.000,283.722
255,255,79073.000,281.199
256,256,79375.000,281.736
257,257,79249.000,281.512
258,258,79239.000,281.494
259,259,78783.000,280.683
260,260,79243.000,281.501
261,261,78123.000,279.505
262,262,78960.000,280.998
263,263,78172.000,279.593
264,264,77365.000,278.146
265,265,77659.000,278.674
266,266,78533.000,280.237
267,267,77600.000,278.568
268,268,77615.000,278.595
269,269,77632.000,278.625
270,270,76634.000,276.828
271,271,77200.000,277.849
272,272,76529.000,276.639
273,273,76748.000,277.034
274,274,77045.000,277.570
275,275,78216.000,279.671
276,276,78294.000,279.811
277,277,80094.000,283.009
278,278,81320.000,285.167
279,279,82489.000,287.209
280,280,82806.000,287.760
281,281,82611.000,287.421
282,282,82607.000,287.414
283,283,81845.000,286.086
284,284,81784.000,285.979
285,285,82004.000,286.363
286,286,80936.000,284.493
287,287,80422.000,283.588
288,288,79585.000,282.108
289,289,79756.000,282.411
290,290,79253.000,281.519
291,291,78536.000,280.243
292,292,78751.000,280.626
293,293,79237.000,281.491
294,294,78512.000,280.200
295,295,77979.000,279.247
296,296,78070.000,279.410
297,297,77669.000,278.692
298,298,77034.000,277.550
299,299,76888.000,277.287
300,300,76892.000,277.294
301,301,75412.000,274.612
302,302,76135.000,275.926
303,303,75401.000,274.592
304,304,74489.000,272.927
305,305,73735.000,271.542
306,306,72559.000,269.368
307,307,71611.000,267.602
308,308,71742.000,267.847
309,309,69765.000,264.131
310,310,69955.000,264.490
311,311,68922.000,262.530
312,312,68192.000,261.136
313,313,67399.000,259.613
314,314,67726.000,260.242
315,315,68402.000,261.538
316,316,67586.000,259.973
317,317,68592.000,261.901
318,318,69451.000,263.536
319,319,68741.000,262.185
320,320,68350.000,261.438
321,321,67494.000,259.796
322,322,67093.000,259.023
323,323,66565.000,258.002
324,324,65332.000,255.601
325,325,65232.000,255.406
326,326,64964.000,254.880
327,327,65197.000,255.337
328,328,65299.000,255.537
329,329,64113.000,253.205
330,330,63699.000,252.387
331,331,62569.000,250.138
332,332,62239.000,249.477
333,333,62267.000,249.534
334,334,62705.000,250.410
335,335,62817.000,250.633
336,336,63965.000,252.913
337,337,63528.000,252.048
338,338,62742.000,250.484
339,339,62161.000,249.321
340,340,61431.000,247.853
341,341,61552.000,248.097
342,342,60658.000,246.288
343,343,59744.000,244.426
344,344,59874.000,244.692
345,345,58894.000,242.681
346,346,58701.000,242.283
347,347,56949.000,238.640
348,348,56550.000,237.802
349,349,55530.000,235.648
350,350,55727.000,236.066
351,351,54749.000,233.985
352,352,54031.000,232.446
353,353,53862.000,232.082
354,354,53401.000,231.087
355,355,52573.000,229.288
356,356,52417.000,228.948
357,357,52153.000,228.370
358,358,51507.000,226.952
359,359,50889.000,225.586
360,360,50786.000,225.357
361,361,50402.000,224.504
362,362,49774.000,223.101
363,363,49441.000,222.353
364,364,48375.000,219.943
365,365,48142.000,219.413
366,366,48793.000,220.891
367,367,49535.000,222.565
368,368,49239.000,221.899
369,369,49174.000,221.752
370,370,48800.000,220.907
371,371,48826.000,220.966
372,372,47686.000,218.371
373,373,48497.000,220.220
374,374,47592.000,218.156
375,375,49623.000,222.762
376,376,50295.000,224.265
377,377,51597.000,227.150
378,378,52662.000,229.482
379,379,52787.000,229.754
380,380,52445.000,229.009
381,381,53180.000,230.608
382,382,51716.000,227.412
383,383,51950.000,227.925
384,384,51625.000,227.211
385,385,51208.000,226.292
386,386,50863.000,225.528
387,387,50504.000,224.731
388,388,49792.000,223.141
389,389,49583.000,222.672
390,390,48524.000,220.282
391,391,47852.000,218.751
392,392,47760.000,218.541
393,393,47263.000,217.401
394,394,46329.000,215.242
395,395,44981.000,212.087
396,396,45162.000,212.514
397,397,44416.000,210.751
398,398,43850.000,209.404
399,399,43000.000,207.364
400,400,42459.000,206.056
401,401,42025.000,205.000
402,402,41869.000,204.619
403,403,41121.000,202.783
404,404,40468.000,201.167
405,405,40119.000,200.297
406,406,39000.000,197.484
407,407,39129.000,197.811
408,408,38185.000,195.410
409,409,38171.000,195.374
410,410,37571.000,193.832
411,411,37742.000,194.273
412,412,37567.000,193.822
413,413,37409.000,193.414
414,414,36557.000,191.199
415,415,36546.000,191.170
416,416,36809.000,191.857
417,417,36562.000,191.212
418,418,36190.000,190.237
419,419,36504.000,191.060
420,420,35145.000,187.470
421,421,35157.000,187.502
422,422,34428.000,185.548
423,423,34029.000,184.470
424,424,33976.000,184.326
425,425,33462.000,182.926
426,426,32802.000,181.113
427,427,32652.000,180.699
428,428,32518.000,180.327
429,429,32406.000,180.017
430,430,31274.000,176.845
431,431,30999.000,176.065
432,432,30891.000,175.758
433,433,30598.000,174.923
434,434,30472.000,174.562
435,435,29844.000,172.754
436,436,30142.000,173.615
437,437,29775.000,172.554
438,438,29498.000,171.750
439,439,28820.000,169.765
440,440,27679.000,166.370
441,441,28200.000,167.929
442,442,27853.000,166.892
443,443,27582.000,166.078
444,444,27088.000,164.584
445,445,26930.000,164.104
446,446,26564.000,162.985
447,447,26553.000,162.951
448,448,25967.000,161.143
449,449,25422.000,159.443
450,450,25381.000,159.314
451,451,25386.000,159.330
452,452,25453.000,159.540
453,453,24834.000,157.588
454,454,24308.000,155.910
455,455,24696.000,157.150
456,456,23891.000,154.567
457,457,23672.000,153.857
458,458,23537.000,153.418
459,459,23545.000,153.444
460,460,23218.000,152.375
461,461,22945.000,151.476
462,462,22398.000,149.660
463,463,22401.000,149.670
464,464,22256.000,149.184
465,465,22478.000,149.927
466,466,21863.000,147.861
467,467,21751.000,147.482
468,468,21862.000,147.858
469,469,21613.000,147.014
470,470,21998.000,148.317
471,471,21393.000,146.263
472,472,22261.000,149.201
473,473,22581.000,150.270
474,474,22640.000,150.466
475,475,22479.000,149.930
476,476,21856.000,147.838
477,477,22232.000,149.104
478,478,21596.000,146.956
479,479,21335.000,146.065
480,480,21459.000,146.489
481,481,21114.000,145.307
482,482,21429.000,146.386
483,483,20608.000,143.555
484,484,20483.000,143.119
485,485,20574.000,143.436
486,486,19687.000,140.310
487,487,19892.000,141.039
488,488,19752.000,140.542
489,489,19529.000,139.746
490,490,19428.000,139.384
491,491,19250.000,138.744
492,492,19629.000,140.104
493,493,20362.000,142.695
494,494,20810.000,144.257
495,495,21632.000,147.078
496,496,22241.000,149.134
497,497,22503.000,150.010
498,498,22062.000,148.533
499,499,21525.000,146.714
500,500,21890.000,147.953
501,501,21829.000,147.746
502,502,21362.000,146.157
503,503,20998.000,144.907
504,504,20763.000,144.094
505,505,20911.000,144.606
506,506,20645.000,143.684
507,507,20534.000,143.297
508,508,19566.000,139.879
509,509,19791.000,140.680
510,510,19255.000,138.762
511,511,18897.000,137.466
512,512,18672.000,136.646
513,513,18987.000,137.793
514,514,18713.000,136.795
515,515,17592.000,132.635
516,516,18258.000,135.122
517,517,17613.000,132.714
518,518,17362.000,131.765
519,519,16925.000,130.096
520,520,16952.000,130.200
521,521,17169.000,131.031
522,522,17157.000,130.985
523,523,16857.000,129.835
524,524,16367.000,127.934
525,525,16761.000,129.464
526,526,16271.000,127.558
527,527,16027.000,126.598
528,528,15672.000,125.188
529,529,15879.000,126.012
530,530,15611.000,124.944
531,531,15013.000,122.528
532,532,14898.000,122.057
533,533,15183.000,123.219
534,534,14819.000,121.733
535,535,15293.000,123.665
536,536,15369.000,123.972
537,537,14883.000,121.996
538,538,15148.000,123.077
539,539,15115.000,122.943
540,540,14734.000,121.384
541,541,14744.000,121.425
542,542,14743.000,121.421
543,543,14862.000,121.910
544,544,14673.000,121.132
545,545,14480.000,120.333
546,546,14190.000,119.122
547,547,14182.000,119.088
548,548,14105.000,118.764
549,549,14075.000,118.638
550,550,14164.000,119.013
551,551,13792.000,117.439
552,552,13615.000,116.683
553,553,13236.000,115.048
554,554,13089.000,114.407
555,555,12923.000,113.679
556,556,13067.000,114.311
557,557,13214.000,114.952
558,558,12784.000,113.066
559,559,13123.000,114.556
560,560,12702.000,112.703
561,561,12450.000,111.580
562,562,12588.000,112.196
563,563,12561.000,112.076
564,564,12714.000,112.756
565,565,12359.000,111.171
566,566,11740.000,108.351
567,567,11400.000,106.771
568,568,11459.000,107.047
569,569,11293.000,106.269
570,570,11280.000,106.207
571,571,10844.000,104.135
572,572,10714.000,103.508
573,573,10642.000,103.160
574,574,10576.000,102.840
575,575,10410.000,102.029
576,576,10462.000,102.284
577,577,10762.000,103.740
578,578,11523.000,107.345
579,579,12110.000,110.045
580,580,12739.000,112.867
581,581,12262.000,110.734
582,582,12655.000,112.494
583,583,12912.000,113.631
584,584,12620.000,112.339
585,585,12768.000,112.996
586,586,12635.000,112.406
587,587,12651.000,112.477
588,588,12754.000,112.934
589,589,12343.000,111.099
590,590,12548.000,112.018
591,591,12278.000,110.806
592,592,12165.000,110.295
593,593,12362.000,111.185
594,594,11898.000,109.078
595,595,11945.000,109.293
596,596,11797.000,108.614
597,597,11608.000,107.740
598,598,11440.000,106.958
599,599,11437.000,106.944
600,600,11318.000,106.386
601,601,11571.000,107.569
602,602,11127.000,105.485
603,603,11151.000,105.598
604,604,11074.000,105.233
605,605,11341.000,106.494
606,606,11130.000,105.499
607,607,10895.000,104.379
608,608,11002.000,104.890
609,609,10827.000,104.053
610,610,11056.000,105.148
611,611,10773.000,103.793
612,612,10952.000,104.652
613,613,10519.000,102.562
614,614,10252.000,101.252
615,615,10042.000,100.210
616,616,10204.000,101.015
617,617,10309.000,101.533
618,618,9997.000,99.985
619,619,10306.000,101.518
620,620,10057.000,100.285
621,621,9909.000,99.544
622,622,9940.000,99.700
623,623,9367.000,96.783
624,624,9540.000,97.673
625,625,9506.000,97.499
626,626,9206.000,95.948
627,627,9396.000,96.933
628,628,9167.000,95.744
629,629,9037.000,95.063
630,630,8794.000,93.776
631,631,8933.000,94.515
632,632,8856.000,94.106
633,633,8890.000,94.287
634,634,8872.000,94.191
635,635,8561.000,92.526
636,636,8428.000,91.804
637,637,8288.000,91.038
638,638,8291.000,91.055
639,639,8041.000,89.672
640,640,7940.000,89.107
641,641,8024.000,89.577
642,642,7885.000,88.798
643,643,8141.000,90.227
644,644,7788.000,88.250
645,645,7910.000,88.938
646,646,7639.000,87.401
647,647,7455.000,86.342
648,648,7274.000,85.288
649,649,7520.000,86.718
650,650,7360.000,85.790
651,651,7463.000,86.389
652,652,7359.000,85.785
653,653,7467.000,86.412
654,654,7393.000,85.983
655,655,7325.000,85.586
656,656,7579.000,87.057
657,657,7495.000,86.574
658,658,7349.000,85.726
659,659,7487.000,86.527
660,660,7518.000,86.706
661,661,7159.000,84.611
662,662,7284.000,85.346
663,663,7110.000,84.321
664,664,7172.000,84.688
665,665,6949.000,83.361
666,666,6837.000,82.686
667,667,6828.000,82.632
668,668,6711.000,81.921
669,669,6600.000,81.240
670,670,6532.000,80.821
671,671,6227.000,78.911
672,672,6394.000,79.962
673,673,6605.000,81.271
674,674,6468.000,80.424
675,675,6499.000,80.616
676,676,6343.000,79.643
677,677,6364.000,79.775
678,678,6500.000,80.623
679,679,6497.000,80.604
680,680,6446.000,80.287
681,681,6692.000,81.805
682,682,6413.000,80.081
683,683,6247.000,79.038
684,684,6498.000,80.610
685,685,6246.000,79.032
686,686,6147.000,78.403
687,687,5963.000,77.220
688,688,6062.000,77.859
689,689,6061.000,77.852
690,690,5995.000,77.427
691,691,6174.000,78.575
692,692,5822.000,76.302
693,693,5710.000,75.565
694,694,5830.000,76.354
695,695,5591.000,74.773
696,696,5705.000,75.531
697,697,5745.000,75.796
698,698,5558.000,74.552
699,699,5458.000,73.878
700,700,5447.000,73.804
701,701,5439.000,73.750
702,702,5247.000,72.436
703,703,5153.000,71.784
704,704,5372.000,73.294
705,705,5333.000,73.027
706,706,5081.000,71.281
707,707,5243.000,72.409
708,708,5167.000,71.882
709,709,5156.000,71.805
710,710,4968.000,70.484
711,711,5126.000,71.596
712,712,4967.000,70.477
713,713,4923.000,70.164
714,714,4767.000,69.043
715,715,4927.000,70.193
716,716,4755.000,68.957
717,717,4536.000,67.350
718,718,4589.000,67.742
719,719,4699.000,68.549
720,720,4370.000,66.106
721,721,4374.000,66.136
722,722,4348.000,65.939
723,723,4427.000,66.536
724,724,4270.000,65.345
725,725,4310.000,65.651
726,726,4322.000,65.742
727,727,4020.000,63.403
728,728,4194.000,64.761
729,729,4166.000,64.545
730,730,4106.000,64.078
731,731,4082.000,63.891
732,732,4034.000,63.514
733,733,4046.000,63.608
734,734,4022.000,63.419
735,735,3925.000,62.650
736,736,3978.000,63.071
737,737,3764.000,61.351
738,738,3892.000,62.386
739,739,3796.000,61.612
740,740,3803.000,61.668
741,741,3792.000,61.579
742,742,3512.000,59.262
743,743,3613.000,60.108
744,744,3875.000,62.249
745,745,3495.000,59.119
746,746,3610.000,60.083
747,747,3693.000,60.770
748,748,3501.000,59.169
749,749,3592.000,59.933
750,750,3598.000,59.983
751,751,3569.000,59.741
752,752,3394.000,58.258
753,753,3326.000,57.671
754,754,3591.000,59.925
755,755,3241.000,56.930
756,756,3246.000,56.974
757,757,3447.000,58.711
758,758,3204.000,56.604
759,759,3241.000,56.930
760,760,3145.000,56.080
761,761,3199.000,56.560
762,762,3132.000,55.964
763,763,3326.000,57.671
764,764,2989.000,54.672
765,765,3188.000,56.462
766,766,3209.000,56.648
767,767,3161.000,56.223
768,768,3161.000,56.223
769,769,3108.000,55.749
770,770,3151.000,56.134
771,771,3025.000,55.000
772,772,2886.000,53.722
773,773,2908.000,53.926
774,774,3017.000,54.927
775,775,2818.000,53.085
776,776,2875.000,53.619
777,777,2769.000,52.621
778,778,2807.000,52.981
779,779,2782.000,52.745
780,780,2788.000,52.802
781,781,2700.000,51.962
782,782,2720.000,52.154
783,783,2679.000,51.759
784,784,2704.000,52.000
785,785,2725.000,52.202
786,786,2597.000,50.961
787,787,2671.000,51.682
788,788,2508.000,50.080
789,789,2473.000,49.729
790,790,2567.000,50.666
791,791,2460.000,49.598
792,792,2589.000,50.882
793,793,2452.000,49.518
794,794,2533.000,50.329
795,795,2543.000,50.428
796,796,2719.000,52.144
797,797,2484.000,49.840
798,798,2496.000,49.960
799,799,2518.000,50.180
800,800,2727.000,52.221
801,801,2588.000,50.872
802,802,2632.000,51.303
803,803,2608.000,51.069
804,804,2556.000,50.557
805,805,2551.000,50.507
806,806,2563.000,50.626
807,807,2481.000,49.810
808,808,2406.000,49.051
809,809,2479.000,49.790
810,810,2511.000,50.110
811,811,2449.000,49.487
812,812,2350.000,48.477
813,813,2280.000,47.749
814,814,2418.000,49.173
815,815,2431.000,49.305
816,816,2364.000,48.621
817,817,2570.000,50.695
818,818,2684.000,51.807
819,819,2582.000,50.813
820,820,2533.000,50.329
821,821,2594.000,50.931
822,822,2753.000,52.469
823,823,2703.000,51.990
824,824,2718.000,52.134
825,825,2583.000,50.823
826,826,2641.000,51.391
827,827,2661.000,51.585
828,828,2611.000,51.098
829,829,2535.000,50.349
830,830,2460.000,49.598
831,831,2469.000,49.689
832,832,2486.000,49.860
833,833,2441.000,49.406
834,834,2556.000,50.557
835,835,2515.000,50.150
836,836,2570.000,50.695
837,837,2404.000,49.031
838,838,2333.000,48.301
839,839,2407.000,49.061
840,840,2306.000,48.021
841,841,2425.000,49.244
842,842,2406.000,49.051
843,843,2186.000,46.755
844,844,2347.000,48.446
845,845,2400.000,48.990
846,846,2289.000,47.843
847,847,2299.000,47.948
848,848,2428.000,49.275
849,849,2208.000,46.989
850,850,2346.000,48.436
851,851,2350.000,48.477
852,852,2406.000,49.051
853,853,2290.000,47.854
854,854,2553.000,50.527
855,855,2256.000,47.497
856,856,2379.000,48.775
857,857,2411.000,49.102
858,858,2303.000,47.990
859,859,2422.000,49.214
860,860,2508.000,50.080
861,861,2280.000,47.749
862,862,2425.000,49.244
863,863,2422.000,49.214
864,864,2317.000,48.135
865,865,2330.000,48.270
866,866,2387.000,48.857
867,867,2359.000,48.570
868,868,2193.000,46.829
869,869,2319.000,48.156
870,870,2332.000,48.291
871,871,2310.000,48.062
872,872,2365.000,48.631
873,873,2335.000,48.322
874,874,2295.000,47.906
875,875,2304.000,48.000
876,876,2258.000,47.518
877,877,2408.000,49.071
878,878,2271.000,47.655
879,879,2234.000,47.265
880,880,2216.000,47.074
881,881,2265.000,47.592
882,882,2132.000,46.174
883,883,2070.000,45.497
884,884,2110.000,45.935
885,885,2119.000,46.033
886,886,2121.000,46.054
887,887,2072.000,45.519
888,888,1925.000,43.875
889,889,1994.000,44.654
890,890,1931.000,43.943
891,891,1848.000,42.988
892,892,1852.000,43.035
893,893,1946.000,44.113
894,894,1879.000,43.347
895,895,1937.000,44.011
896,896,1857.000,43.093
897,897,1796.000,42.379
898,898,1876.000,43.313
899,899,1931.000,43.943
900,900,1745.000,41.773
901,901,1747.000,41.797
902,902,1747.000,41.797
903,903,1709.000,41.340
904,904,1626.000,40.324
905,905,1799.000,42.415
906,906,1719.000,41.461
907,907,1696.000,41.183
908,908,1784.000,42.237
909,909,1694.000,41.158
910,910,1609.000,40.112
911,911,1639.000,40.485
912,912,1600.000,40.000
913,913,1612.000,40.150
914,914,1445.000,38.013
915,915,1590.000,39.875
916,916,1626.000,40.324
917,917,1556.000,39.446
918,918,1595.000,39.937
919,919,1459.000,38.197
920,920,1660.000,40.743
921,921,1636.000,40.447
922,922,1521.000,39.000
923,923,1584.000,39.799
924,924,1654.000,40.669
925,925,1608.000,40.100
926,926,1597.000,39.962
927,927,1620.000,40.249
928,928,1516.000,38.936
929,929,1609.000,40.112
930,930,1510.000,38.859
931,931,1602.000,40.025
932,932,1586.000,39.825
933,933,1744.000,41.761
934,934,1702.000,41.255
935,935,1716.000,41.425
936,936,1618.000,40.224
937,937,1762.000,41.976
938,938,1844.000,42.942
939,939,1757.000,41.917
940,940,1887.000,43.440
941,941,1996.000,44.677
942,942,2114.000,45.978
943,943,2215.000,47.064
944,944,2369.000,48.672
945,945,2418.000,49.173
946,946,2488.000,49.880
947,947,2439.000,49.386
948,948,2507.000,50.070
949,949,2563.000,50.626
950,950,2485.000,49.850
951,951,2566.000,50.656
952,952,2536.000,50.359
953,953,2582.000,50.813
954,954,2394.000,48.929
955,955,2513.000,50.130
956,956,2564.000,50.636
957,957,2474.000,49.739
958,958,2214.000,47.053
959,959,2352.000,48.497
960,960,2454.000,49.538
961,961,2337.000,48.343
962,962,2341.000,48.384
963,963,2273.000,47.676
964,964,2332.000,48.291
965,965,2494.000,49.940
966,966,2300.000,47.958
967,967,2274.000,47.686
968,968,2291.000,47.864
969,969,2438.000,49.376
970,970,2182.000,46.712
971,971,2214.000,47.053
972,972,2269.000,47.634
973,973,2153.000,46.400
974,974,2249.000,47.424
975,975,2198.000,46.883
976,976,2196.000,46.861
977,977,2233.000,47.255
978,978,2203.000,46.936
979,979,2133.000,46.184
980,980,2165.000,46.530
981,981,1966.000,44.340
982,982,2030.000,45.056
983,983,1967.000,44.351
984,984,2111.000,45.946
985,985,2019.000,44.933
986,986,2115.000,45.989
987,987,2175.000,46.637
988,988,2067.000,45.464
989,989,2010.000,44.833
990,990,1945.000,44.102
991,991,1972.000,44.407
992,992,2017.000,44.911
993,993,1947.000,44.125
994,994,1947.000,44.125
995,995,1999.000,44.710
996,996,1992.000,44.632
997,997,1942.000,44.068
998,998,1914.000,43.749
999,999,1989.000,44.598
1000,1000,1870.000,43.243
1001,1001,1924.000,43.863
1002,1002,1963.000,44.306
1003,1003,1855.000,43.070
1004,1004,1919.000,43.806
1005,1005,1701.000,41.243
1006,1006,1861.000,43.139
1007,1007,1996.000,44.677
1008,1008,1796.000,42.379
1009,1009,1873.000,43.278
1010,1010,1844.000,42.942
1011,1011,1760.000,41.952
1012,1012,1873.000,43.278
1013,1013,1829.000,42.767
1014,1014,1724.000,41.521
1015,1015,1734.000,41.641
1016,1016,1829.000,42.767
1017,1017,1702.000,41.255
1018,1018,1689.000,41.097
1019,1019,1789.000,42.297
1020,1020,1622.000,40.274
1021,1021,1785.000,42.249
1022,1022,1575.000,39.686
1023,1023,1566.000,39.573
1024,1024,1647.000,40.583
1025,1025,1655.000,40.682
1026,1026,1593.000,39.912
1027,1027,1687.000,41.073
1028,1028,1732.000,41.617
1029,1029,1551.000,39.383
1030,1030,1516.000,38.936
1031,1031,1687.000,41.073
1032,1032,1671.000,40.878
1033,1033,1503.000,38.769
1034,1034,1645.000,40.559
1035,1035,1608.000,40.100
1036,1036,1566.000,39.573
1037,1037,1468.000,38.314
1038,1038,1618.000,40.224
1039,1039,1583.000,39.787
1040,1040,1410.000,37.550
1041,1041,1503.000,38.769
1042,1042,1453.000,38.118
1043,1043,1556.000,39.446
1044,1044,1458.000,38.184
1045,1045,1424.000,37.736
1046,1046,1372.000,37.041
1047,1047,1361.000,36.892
1048,1048,1356.000,36.824
1049,1049,1470.000,38.341
1050,1050,1407.000,37.510
1051,1051,1412.000,37.577
1052,1052,1274.000,35.693
1053,1053,1258.000,35.468
1054,1054,1396.000,37.363
1055,1055,1337.000,36.565
1056,1056,1333.000,36.510
1057,1057,1256.000,35.440
1058,1058,1172.000,34.234
1059,1059,1199.000,34.627
1060,1060,1071.000,32.726
1061,1061,1065.000,32.634
1062,1062,1236.000,35.157
1063,1063,1242.000,35.242
1064,1064,1239.000,35.199
1065,1065,1255.000,35.426
1066,1066,1501.000,38.743
1067,1067,1338.000,36.579
1068,1068,1322.000,36.359
1069,1069,1401.000,37.430
1070,1070,1436.000,37.895
1071,1071,1339.000,36.592
1072,1072,1360.000,36.878
1073,1073,1356.000,36.824
1074,1074,1373.000,37.054
1075,1075,1334.000,36.524
1076,1076,1331.000,36.483
1077,1077,1331.000,36.483
1078,1078,1336.000,36.551
1079,1079,1266.000,35.581
1080,1080,1385.000,37.216
1081,1081,1302.000,36.083
1082,1082,1289.000,35.903
1083,1083,1261.000,35.511
1084,1084,1365.000,36.946
1085,1085,1406.000,37.497
1086,1086,1289.000,35.903
1087,1087,1256.000,35.440
1088,1088,1140.000,33.764
1089,1089,1172.000,34.234
1090,1090,1184.000,34.409
1091,1091,1194.000,34.554
1092,1092,1209.000,34.771
1093,1093,1251.000,35.369
1094,1094,1266.000,35.581
1095,1095,1245.000,35.285
1096,1096,1331.000,36.483
1097,1097,1208.000,34.756
1098,1098,1132.000,33.645
1099,1099,1242.000,35.242
1100,1100,1161.000,34.073
1101,1101,1110.000,33.317
1102,1102,1170.000,34.205
1103,1103,1147.000,33.867
1104,1104,1246.000,35.299
1105,1105,1145.000,33.838
1106,1106,1229.000,35.057
1107,1107,1136.000,33.705
1108,1108,1209.000,34.771
1109,1109,1080.000,32.863
1110,1110,1080.000,32.863
1111,1111,1188.000,34.467
1112,1112,1085.000,32.939
1113,1113,1113.000,33.362
1114,1114,1085.000,32.939
1115,1115,1148.000,33.882
1116,1116,1077.000,32.818
1117,1117,1056.000,32.496
1118,1118,1082.000,32.894
1119,1119,1057.000,32.512
1120,1120,1066.000,32.650
1121,1121,1012.000,31.812
1122,1122,1068.000,32.680
1123,1123,1061.000,32.573
1124,1124,1158.000,34.029
1125,1125,1092.000,33.045
1126,1126,1245.000,35.285
1127,1127,1127.000,33.571
1128,1128,1104.000,33.226
1129,1129,1144.000,33.823
1130,1130,1041.000,32.265
1131,1131,1173.000,34.249
1132,1132,1039.000,32.234
1133,1133,1078.000,32.833
1134,1134,1164.000,34.117
1135,1135,1156.000,34.000
1136,1136,1175.000,34.278
1137,1137,1115.000,33.392
1138,1138,1071.000,32.726
1139,1139,1096.000,33.106
1140,1140,1118.000,33.437
1141,1141,1067.000,32.665
1142,1142,1123.000,33.511
1143,1143,1038.000,32.218
1144,1144,1087.000,32.970
1145,1145,1036.000,32.187
1146,1146,1032.000,32.125
1147,1147,1080.000,32.863
1148,1148,1070.000,32.711
1149,1149,1081.000,32.879
1150,1150,1066.000,32.650
1151,1151,1108.000,33.287
1152,1152,1011.000,31.796
1153,1153,1055.000,32.481
1154,1154,1063.000,32.604
1155,1155,1005.000,31.702
1156,1156,982.000,31.337
1157,1157,1040.000,32.249
1158,1158,1062.000,32.588
1159,1159,953.000,30.871
1160,1160,972.000,31.177
1161,1161,986.000,31.401
1162,1162,985.000,31.385
1163,1163,1052.000,32.435
1164,1164,1046.000,32.342
1165,1165,940.000,30.659
1166,1166,1035.000,32.171
1167,1167,935.000,30.578
1168,1168,859.000,29.309
1169,1169,942.000,30.692
1170,1170,1011.000,31.796
1171,1171,916.000,30.265
1172,1172,883.000,29.715
1173,1173,1002.000,31.654
1174,1174,869.000,29.479
1175,1175,941.000,30.676
1176,1176,941.000,30.676
1177,1177,918.000,30.299
1178,1178,927.000,30.447
1179,1179,868.000,29.462
1180,1180,920.000,30.332
1181,1181,804.000,28.355
1182,1182,761.000,27.586
1183,1183,922.000,30.364
1184,1184,842.000,29.017
1185,1185,882.000,29.698
1186,1186,925.000,30.414
1187,1187,834.000,28.879
1188,1188,821.000,28.653
1189,1189,776.000,27.857
1190,1190,900.000,30.000
1191,1191,805.000,28.373
1192,1192,868.000,29.462
1193,1193,789.000,28.089
1194,1194,898.000,29.967
1195,1195,870.000,29.496
1196,1196,876.000,29.597
1197,1197,798.000,28.249
1198,1198,838.000,28.948
1199,1199,829.000,28.792
1200,1200,749.000,27.368
1201,1201,777.000,27.875
1202,1202,743.000,27.258
1203,1203,807.000,28.408
1204,1204,815.000,28.548
1205,1205,776.000,27.857
1206,1206,865.000,29.411
1207,1207,741.000,27.221
1208,1208,786.000,28.036
1209,1209,763.000,27.622
1210,1210,770.000,27.749
1211,1211,792.000,28.142
1212,1212,792.000,28.142
1213,1213,851.000,29.172
1214,1214,766.000,27.677
1215,1215,762.000,27.604
1216,1216,844.000,29.052
1217,1217,676.000,26.000
1218,1218,800.000,28.284
1219,1219,655.000,25.593
1220,1220,739.000,27.185
1221,1221,778.000,27.893
1222,1222,729.000,27.000
1223,1223,690.000,26.268
1224,1224,698.000,26.420
1225,1225,673.000,25.942
1226,1226,722.000,26.870
1227,1227,696.000,26.382
1228,1228,708.000,26.608
1229,1229,754.000,27.459
1230,1230,763.000,27.622
1231,1231,787.000,28.054
1232,1232,697.000,26.401
1233,1233,681.000,26.096
1234,1234,687.000,26.211
1235,1235,730.000,27.019
1236,1236,650.000,25.495
1237,1237,679.000,26.058
1238,1238,749.000,27.368
1239,1239,714.000,26.721
1240,1240,657.000,25.632
1241,1241,647.000,25.436
1242,1242,650.000,25.495
1243,1243,648.000,25.456
1244,1244,601.000,24.515
1245,1245,648.000,25.456
1246,1246,624.000,24.980
1247,1247,617.000,24.839
1248,1248,661.000,25.710
1249,1249,654.000,25.573
1250,1250,665.000,25.788
1251,1251,598.000,24.454
1252,1252,618.000,24.860
1253,1253,621.000,24.920
1254,1254,612.000,24.739
1255,1255,676.000,26.000
1256,1256,599.000,24.474
1257,1257,631.000,25.120
1258,1258,577.000,24.021
1259,1259,617.000,24.839
1260,1260,578.000,24.042
1261,1261,549.000,23.431
1262,1262,603.000,24.556
1263,1263,502.000,22.405
1264,1264,622.000,24.940
1265,1265,612.000,24.739
1266,1266,574.000,23.958
1267,1267,535.000,23.130
1268,1268,641.000,25.318
1269,1269,590.000,24.290
1270,1270,574.000,23.958
1271,1271,500.000,22.361
1272,1272,544.000,23.324
1273,1273,570.000,23.875
1274,1274,555.000,23.558
1275,1275,544.000,23.324
1276,1276,625.000,25.000
1277,1277,609.000,24.678
1278,1278,640.000,25.298
1279,1279,537.000,23.173
1280,1280,602.000,24.536
1281,1281,525.000,22.913
1282,1282,554.000,23.537
1283,1283,549.000,23.431
1284,1284,581.000,24.104
1285,1285,555.000,23.558
1286,1286,487.000,22.068
1287,1287,520.000,22.804
1288,1288,600.000,24.495
1289,1289,544.000,23.324
1290,1290,461.000,21.471
1291,1291,539.000,23.216
1292,1292,518.000,22.760
1293,1293,651.000,25.515
1294,1294,551.000,23.473
1295,1295,606.000,24.617
1296,1296,545.000,23.345
1297,1297,531.000,23.043
1298,1298,614.000,24.779
1299,1299,655.000,25.593
1300,1300,580.000,24.083
1301,1301,549.000,23.431
1302,1302,673.000,25.942
1303,1303,603.000,24.556
1304,1304,518.000,22.760
1305,1305,527.000,22.956
1306,1306,660.000,25.690
1307,1307,595.000,24.393
1308,1308,660.000,25.690
1309,1309,550.000,23.452
1310,1310,596.000,24.413
1311,1311,555.000,23.558
1312,1312,655.000,25.593
1313,1313,637.000,25.239
1314,1314,593.000,24.352
1315,1315,578.000,24.042
1316,1316,601.000,24.515
1317,1317,610.000,24.698
1318,1318,612.000,24.739
1319,1319,597.000,24.434
1320,1320,573.000,23.937
1321,1321,582.000,24.125
1322,1322,627.000,25.040
1323,1323,592.000,24.331
1324,1324,544.000,23.324
1325,1325,685.000,26.173
1326,1326,563.000,23.728
1327,1327,520.000,22.804
1328,1328,585.000,24.187
1329,1329,553.000,23.516
1330,1330,537.000,23.173
1331,1331,576.000,24.000
1332,1332,552.000,23.495
1333,1333,513.000,22.650
1334,1334,586.000,24.207
1335,1335,517.000,22.738
1336,1336,570.000,23.875
1337,1337,519.000,22.782
1338,1338,546.000,23.367
1339,1339,561.000,23.685
1340,1340,607.000,24.637
1341,1341,564.000,23.749
1342,1342,540.000,23.238
1343,1343,562.000,23.707
1344,1344,516.000,22.716
1345,1345,551.000,23.473
1346,1346,500.000,22.361
1347,1347,515.000,22.694
1348,1348,549.000,23.431
1349,1349,483.000,21.977
1350,1350,538.000,23.195
1351,1351,493.000,22.204
1352,1352,486.000,22.045
1353,1353,459.000,21.424
1354,1354,512.000,22.627
1355,1355,510.000,22.583
1356,1356,497.000,22.293
1357,1357,490.000,22.136
1358,1358,477.000,21.840
1359,1359,484.000,22.000
1360,1360,536.000,23.152
1361,1361,437.000,20.905
1362,1362,432.000,20.785
1363,1363,464.000,21.541
1364,1364,426.000,20.640
1365,1365,475.000,21.794
1366,1366,465.000,21.564
1367,1367,440.000,20.976
1368,1368,484.000,22.000
1369,1369,440.000,20.976
1370,1370,413.000,20.322
1371,1371,410.000,20.248
1372,1372,437.000,20.905
1373,1373,461.000,21.471
1374,1374,399.000,19.975
1375,1375,466.000,21.587
1376,1376,485.000,22.023
1377,1377,460.000,21.448
1378,1378,441.000,21.000
1379,1379,471.000,21.703
1380,1380,469.000,21.656
1381,1381,430.000,20.736
1382,1382,430.000,20.736
1383,1383,403.000,20.075
1384,1384,427.000,20.664
1385,1385,462.000,21.494
1386,1386,401.000,20.025
1387,1387,422.000,20.543
1388,1388,364.000,19.079
1389,1389,420.000,20.494
1390,1390,456.000,21.354
1391,1391,440.000,20.976
1392,1392,403.000,20.075
1393,1393,429.000,20.712
1394,1394,381.000,19.519
1395,1395,409.000,20.224
1396,1396,361.000,19.000
1397,1397,329.000,18.138
1398,1398,427.000,20.664
1399,1399,392.000,19.799
1400,1400,370.000,19.235
1401,1401,394.000,19.849
1402,1402,367.000,19.157
1403,1403,349.000,18.682
1404,1404,367.000,19.157
1405,1405,374.000,19.339
1406,1406,375.000,19.365
1407,1407,384.000,19.596
1408,1408,369.000,19.209
1409,1409,365.000,19.105
1410,1410,402.000,20.050
1411,1411,390.000,19.748
1412,1412,320.000,17.889
1413,1413,369.000,19.209
1414,1414,318.000,17.833
1415,1415,367.000,19.157
1416,1416,336.000,18.330
1417,1417,400.000,20.000
1418,1418,372.000,19.287
1419,1419,357.000,18.894
1420,1420,404.000,20.100
1421,1421,354.000,18.815
1422,1422,388.000,19.698
1423,1423,375.000,19.365
1424,1424,396.000,19.900
1425,1425,351.000,18.735
1426,1426,375.000,19.365
1427,1427,349.000,18.682
1428,1428,383.000,19.570
1429,1429,288.000,16.971
1430,1430,343.000,18.520
1431,1431,293.000,17.117
1432,1432,339.000,18.412
1433,1433,375.000,19.365
1434,1434,358.000,18.921
1435,1435,372.000,19.287
1436,1436,339.000,18.412
1437,1437,297.000,17.234
1438,1438,338.000,18.385
1439,1439,319.000,17.861
1440,1440,347.000,18.628
1441,1441,342.000,18.493
1442,1442,294.000,17.146
1443,1443,308.000,17.550
1444,1444,369.000,19.209
1445,1445,310.000,17.607
1446,1446,309.000,17.578
1447,1447,312.000,17.664
1448,1448,298.000,17.263
1449,1449,315.000,17.748
1450,1450,350.000,18.708
1451,1451,292.000,17.088
1452,1452,275.000,16.583
1453,1453,334.000,18.276
1454,1454,345.000,18.574
1455,1455,311.000,17.635
1456,1456,315.000,17.748
1457,1457,306.000,17.493
1458,1458,294.000,17.146
1459,1459,305.000,17.464
1460,1460,310.000,17.607
1461,1461,289.000,17.000
1462,1462,328.000,18.111
1463,1463,278.000,16.673
1464,1464,276.000,16.613
1465,1465,335.000,18.303
1466,1466,324.000,18.000
1467,1467,291.000,17.059
1468,1468,356.000,18.868
1469,1469,247.000,15.716
1470,1470,276.000,16.613
1471,1471,300.000,17.321
1472,1472,295.000,17.176
1473,1473,279.000,16.703
1474,1474,309.000,17.578
1475,1475,290.000,17.029
1476,1476,284.000,16.852
1477,1477,295.000,17.176
1478,1478,235.000,15.330
1479,1479,277.000,16.643
1480,1480,265.000,16.279
1481,1481,282.000,16.793
1482,1482,289.000,17.000
1483,1483,311.000,17.635
1484,1484,229.000,15.133
1485,1485,183.000,13.528
1486,1486,236.000,15.362
1487,1487,282.000,16.793
1488,1488,264.000,16.248
1489,1489,275.000,16.583
1490,1490,270.000,16.432
1491,1491,291.000,17.059
1492,1492,260.000,16.125
1493,1493,256.000,16.000
1494,1494,236.000,15.362
1495,1495,238.000,15.427
1496,1496,239.000,15.460
1497,1497,273.000,16.523
1498,1498,314.000,17.720
1499,1499,269.000,16.401
1500,1500,276.000,16.613
1501,1501,274.000,16.553
1502,1502,262.000,16.186
1503,1503,208.000,14.422
1504,1504,262.000,16.186
1505,1505,270.000,16.432
1506,1506,302.000,17.378
1507,1507,262.000,16.186
1508,1508,291.000,17.059
1509,1509,197.000,14.036
1510,1510,251.000,15.843
1511,1511,238.000,15.427
1512,1512,239.000,15.460
1513,1513,277.000,16.643
1514,1514,259.000,16.093
1515,1515,235.000,15.330
1516,1516,266.000,16.310
1517,1517,229.000,15.133
1518,1518,217.000,14.731
1519,1519,228.000,15.100
1520,1520,234.000,15.297
1521,1521,192.000,13.856
1522,1522,194.000,13.928
1523,1523,244.000,15.620
1524,1524,211.000,14.526
1525,1525,240.000,15.492
1526,1526,242.000,15.556
1527,1527,250.000,15.811
1528,1528,191.000,13.820
1529,1529,225.000,15.000
1530,1530,263.000,16.217
1531,1531,223.000,14.933
1532,1532,220.000,14.832
1533,1533,231.000,15.199
1534,1534,224.000,14.967
1535,1535,230.000,15.166
1536,1536,200.000,14.142
1537,1537,242.000,15.556
1538,1538,233.000,15.264
1539,1539,276.000,16.613
1540,1540,189.000,13.748
1541,1541,232.000,15.232
1542,1542,185.000,13.601
1543,1543,215.000,14.663
1544,1544,236.000,15.362
1545,1545,179.000,13.379
1546,1546,218.000,14.765
1547,1547,180.000,13.416
1548,1548,209.000,14.457
1549,1549,204.000,14.283
1550,1550,169.000,13.000
1551,1551,222.000,14.900
1552,1552,186.000,13.638
1553,1553,228.000,15.100
1554,1554,173.000,13.153
1555,1555,213.000,14.595
1556,1556,220.000,14.832
1557,1557,251.000,15.843
1558,1558,180.000,13.416
1559,1559,204.000,14.283
1560,1560,190.000,13.784
1561,1561,200.000,14.142
1562,1562,151.000,12.288
1563,1563,152.000,12.329
1564,1564,217.000,14.731
1565,1565,223.000,14.933
1566,1566,179.000,13.379
1567,1567,181.000,13.454
1568,1568,175.000,13.229
1569,1569,166.000,12.884
1570,1570,188.000,13.711
1571,1571,189.000,13.748
1572,1572,221.000,14.866
1573,1573,191.000,13.820
1574,1574,165.000,12.845
1575,1575,188.000,13.711
1576,1576,209.000,14.457
1577,1577,171.000,13.077
1578,1578,147.000,12.124
1579,1579,210.000,14.491
1580,1580,213.000,14.595
1581,1581,169.000,13.000
1582,1582,188.000,13.711
1583,1583,196.000,14.000
1584,1584,164.000,12.806
1585,1585,154.000,12.410
1586,1586,169.000,13.000
1587,1587,196.000,14.000
1588,1588,186.000,13.638
1589,1589,219.000,14.799
1590,1590,225.000,15.000
1591,1591,159.000,12.610
1592,1592,209.000,14.457
1593,1593,148.000,12.166
1594,1594,166.000,12.884
1595,1595,181.000,13.454
1596,1596,163.000,12.767
1597,1597,145.000,12.042
1598,1598,200.000,14.142
1599,1599,170.000,13.038
1600,1600,174.000,13.191
1601,1601,197.000,14.036
1602,1602,191.000,13.820
1603,1603,153.000,12.369
1604,1604,150.000,12.247
1605,1605,190.000,13.784
1606,1606,158.000,12.570
1607,1607,184.000,13.565
1608,1608,197.000,14.036
1609,1609,153.000,12.369
1610,1610,174.000,13.191
1611,1611,122.000,11.045
1612,1612,161.000,12.689
1613,1613,179.000,13.379
1614,1614,132.000,11.489
1615,1615,145.000,12.042
1616,1616,132.000,11.489
1617,1617,160.000,12.649
1618,1618,159.000,12.610
1619,1619,184.000,13.565
1620,1620,167.000,12.923
1621,1621,177.000,13.304
1622,1622,144.000,12.000
1623,1623,164.000,12.806
1624,1624,147.000,12.124
1625,1625,135.000,11.619
1626,1626,150.000,12.247
1627,1627,138.000,11.747
1628,1628,160.000,12.649
1629,1629,150.000,12.247
1630,1630,145.000,12.042
1631,1631,151.000,12.288
1632,1632,135.000,11.619
1633,1633,169.000,13.000
1634,1634,133.000,11.533
1635,1635,148.000,12.166
1636,1636,144.000,12.000
1637,1637,123.000,11.091
1638,1638,162.000,12.728
1639,1639,151.000,12.288
1640,1640,195.000,13.964
1641,1641,149.000,12.207
1642,1642,144.000,12.000
1643,1643,152.000,12.329
1644,1644,129.000,11.358
1645,1645,111.000,10.536
1646,1646,117.000,10.817
1647,1647,139.000,11.790
1648,1648,127.000,11.269
1649,1649,120.000,10.954
1650,1650,148.000,12.166
1651,1651,114.000,10.677
1652,1652,140.000,11.832
1653,1653,142.000,11.916
1654,1654,145.000,12.042
1655,1655,126.000,11.225
1656,1656,152.000,12.329
1657,1657,118.000,10.863
1658,1658,154.000,12.410
1659,1659,168.000,12.961
1660,1660,128.000,11.314
1661,1661,141.000,11.874
1662,1662,143.000,11.958
1663,1663,117.000,10.817
1664,1664,155.000,12.450
1665,1665,111.000,10.536
1666,1666,121.000,11.000
1667,1667,144.000,12.000
1668,1668,112.000,10.583
1669,1669,140.000,11.832
1670,1670,143.000,11.958
1671,1671,114.000,10.677
1672,1672,160.000,12.649
1673,1673,157.000,12.530
1674,1674,114.000,10.677
1675,1675,136.000,11.662
1676,1676,103.000,10.149
1677,1677,140.000,11.832
1678,1678,156.000,12.490
1679,1679,114.000,10.677
1680,1680,134.000,11.576
1681,1681,122.000,11.045
1682,1682,123.000,11.091
1683,1683,109.000,10.440
1684,1684,154.000,12.410
1685,1685,120.000,10.954
1686,1686,115.000,10.724
1687,1687,121.000,11.000
1688,1688,130.000,11.402
1689,1689,105.000,10.247
1690,1690,127.000,11.269
1691,1691,134.000,11.576
1692,1692,105.000,10.247
1693,1693,138.000,11.747
1694,1694,92.000,9.592
1695,1695,98.000,9.899
1696,1696,112.000,10.583
1697,1697,120.000,10.954
1698,1698,98.000,9.899
1699,1699,108.000,10.392
1700,1700,112.000,10.583
1701,1701,111.000,10.536
1702,1702,135.000,11.619
1703,1703,124.000,11.136
1704,1704,165.000,12.845
1705,1705,100.000,10.000
1706,1706,98.000,9.899
1707,1707,113.000,10.630
1708,1708,116.000,10.770
1709,1709,99.000,9.950
1710,1710,94.000,9.695
1711,1711,132.000,11.489
1712,1712,100.000,10.000
1713,1713,101.000,10.050
1714,1714,112.000,10.583
1715,1715,114.000,10.677
1716,1716,123.000,11.091
1717,1717,120.000,10.954
1718,1718,124.000,11.136
1719,1719,90.000,9.487
1720,1720,114.000,10.677
1721,1721,102.000,10.100
1722,1722,113.000,10.630
1723,1723,63.000,7.937
1724,1724,100.000,10.000
1725,1725,101.000,10.050
1726,1726,134.000,11.576
1727,1727,90.000,9.487
1728,1728,101.000,10.050
1729,1729,119.000,10.909
1730,1730,111.000,10.536
1731,1731,114.000,10.677
1732,1732,93.000,9.644
1733,1733,103.000,10.149
1734,1734,78.000,8.832
1735,1735,113.000,10.630
1736,1736,103.000,10.149
1737,1737,121.000,11.000
1738,1738,116.000,10.770
1739,1739,84.000,9.165
1740,1740,79.000,8.888
1741,1741,73.000,8.544
1742,1742,74.000,8.602
1743,1743,87.000,9.327
1744,1744,107.000,10.344
1745,1745,60.000,7.746
1746,1746,109.000,10.440
1747,1747,90.000,9.487
1748,1748,64.000,8.000
1749,1749,96.000,9.798
1750,1750,71.000,8.426
1751,1751,91.000,9.539
1752,1752,113.000,10.630
1753,1753,79.000,8.888
1754,1754,106.000,10.296
1755,1755,73.000,8.544
1756,1756,102.000,10.100
1757,1757,80.000,8.944
1758,1758,112.000,10.583
1759,1759,86.000,9.274
1760,1760,110.000,10.488
1761,1761,75.000,8.660
1762,1762,105.000,10.247
1763,1763,83.000,9.110
1764,1764,96.000,9.798
1765,1765,52.000,7.211
1766,1766,85.000,9.220
1767,1767,59.000,7.681
1768,1768,72.000,8.485
1769,1769,71.000,8.426
1770,1770,104.000,10.198
1771,1771,96.000,9.798
1772,1772,104.000,10.198
1773,1773,82.000,9.055
1774,1774,83.000,9.110
1775,1775,90.000,9.487
1776,1776,74.000,8.602
1777,1777,79.000,8.888
1778,1778,84.000,9.165
1779,1779,60.000,7.746
1780,1780,64.000,8.000
1781,1781,82.000,9.055
1782,1782,68.000,8.246
1783,1783,53.000,7.280
1784,1784,96.000,9.798
1785,1785,88.000,9.381
1786,1786,85.000,9.220
1787,1787,86.000,9.274
1788,1788,88.000,9.381
1789,1789,86.000,9.274
1790,1790,69.000,8.307
1791,1791,77.000,8.775
1792,1792,80.000,8.944
1793,1793,113.000,10.630
1794,1794,68.000,8.246
1795,1795,76.000,8.718
1796,1796,64.000,8.000
1797,1797,98.000,9.899
1798,1798,88.000,9.381
1799,1799,58.000,7.616
1800,1800,68.000,8.246
1801,1801,52.000,7.211
1802,1802,78.000,8.832
1803,1803,85.000,9.220
1804,1804,66.000,8.124
1805,1805,81.000,9.000
1806,1806,80.000,8.944
1807,1807,95.000,9.747
1808,1808,72.000,8.485
1809,1809,67.000,8.185
1810,1810,93.000,9.644
1811,1811,81.000,9.000
1812,1812,63.000,7.937
1813,1813,76.000,8.718
1814,1814,80.000,8.944
1815,1815,69.000,8.307
1816,1816,59.000,7.681
1817,1817,82.000,9.055
1818,1818,76.000,8.718
1819,1819,77.000,8.775
1820,1820,101.000,10.050
1821,1821,60.000,7.746
1822,1822,93.000,9.644
1823,1823,61.000,7.810
1824,1824,75.000,8.660
1825,1825,66.000,8.124
1826,1826,65.000,8.062
1827,1827,66.000,8.124
1828,1828,82.000,9.055
1829,1829,77.000,8.775
1830,1830,107.000,10.344
1831,1831,97.000,9.849
1832,1832,74.000,8.602
1833,1833,68.000,8.246
1834,1834,67.000,8.185
1835,1835,81.000,9.000
1836,1836,60.000,7.746
1837,1837,66.000,8.124
1838,1838,74.000,8.602
1839,1839,77.000,8.775
1840,1840,85.000,9.220
1841,1841,89.000,9.434
1842,1842,63.000,7.937
1843,1843,53.000,7.280
1844,1844,56.000,7.483
1845,1845,68.000,8.246
1846,1846,38.000,6.164
1847,1847,47.000,6.856
1848,1848,67.000,8.185
1849,1849,53.000,7.280
1850,1850,59.000,7.681
1851,1851,50.000,7.071
1852,1852,63.000,7.937
1853,1853,79.000,8.888
1854,1854,54.000,7.348
1855,1855,62.000,7.874
1856,1856,77.000,8.775
1857,1857,70.000,8.367
1858,1858,58.000,7.616
1859,1859,54.000,7.348
1860,1860,71.000,8.426
1861,1861,78.000,8.832
1862,1862,81.000,9.000
1863,1863,76.000,8.718
1864,1864,95.000,9.747
1865,1865,60.000,7.746
1866,1866,64.000,8.000
1867,1867,76.000,8.718
1868,1868,65.000,8.062
1869,1869,60.000,7.746
1870,1870,61.000,7.810
1871,1871,66.000,8.124
1872,1872,66.000,8.124
1873,1873,48.000,6.928
1874,1874,51.000,7.141
1875,1875,60.000,7.746
1876,1876,77.000,8.775
1877,1877,50.000,7.071
1878,1878,62.000,7.874
1879,1879,52.000,7.211
1880,1880,66.000,8.124
1881,1881,75.000,8.660
1882,1882,44.000,6.633
1883,1883,52.000,7.211
1884,1884,73.000,8.544
1885,1885,81.000,9.000
1886,1886,80.000,8.944
1887,1887,40.000,6.325
1888,1888,44.000,6.633
1889,1889,54.000,7.348
1890,1890,46.000,6.782
1891,1891,45.000,6.708
1892,1892,61.000,7.810
1893,1893,56.000,7.483
1894,1894,48.000,6.928
1895,1895,57.000,7.550
1896,1896,51.000,7.141
1897,1897,53.000,7.280
1898,1898,79.000,8.888
1899,1899,78.000,8.832
1900,1900,66.000,8.124
1901,1901,53.000,7.280
1902,1902,49.000,7.000
1903,1903,46.000,6.782
1904,1904,33.000,5.745
1905,1905,47.000,6.856
1906,1906,47.000,6.856
1907,1907,47.000,6.856
1908,1908,35.000,5.916
1909,1909,55.000,7.416
1910,1910,56.000,7.483
1911,1911,68.000,8.246
1912,1912,47.000,6.856
1913,1913,33.000,5.745
1914,1914,42.000,6.481
1915,1915,54.000,7.348
1916,1916,44.000,6.633
1917,1917,59.000,7.681
1918,1918,50.000,7.071
1919,1919,56.000,7.483
1920,1920,45.000,6.708
1921,1921,51.000,7.141
1922,1922,49.000,7.000
1923,1923,38.000,6.164
1924,1924,42.000,6.481
1925,1925,45.000,6.708
1926,1926,51.000,7.141
1927,1927,41.000,6.403
1928,1928,44.000,6.633
1929,1929,47.000,6.856
1930,1930,43.000,6.557
1931,1931,37.000,6.083
1932,1932,37.000,6.083
1933,1933,62.000,7.874
1934,1934,33.000,5.745
1935,1935,46.000,6.782
1936,1936,72.000,8.485
1937,1937,66.000,8.124
1938,1938,57.000,7.550
1939,1939,55.000,7.416
1940,1940,31.000,5.568
1941,1941,41.000,6.403
1942,1942,39.000,6.245
1943,1943,54.000,7.348
1944,1944,69.000,8.307
1945,1945,64.000,8.000
1946,1946,53.000,7.280
1947,1947,39.000,6.245
1948,1948,47.000,6.856
1949,1949,37.000,6.083
1950,1950,43.000,6.557
1951,1951,44.000,6.633
1952,1952,56.000,7.483
1953,1953,47.000,6.856
1954,1954,33.000,5.745
1955,1955,25.000,5.000
1956,1956,55.000,7.416
1957,1957,41.000,6.403
1958,1958,30.000,5.477
1959,1959,53.000,7.280
1960,1960,33.000,5.745
1961,1961,42.000,6.481
1962,1962,44.000,6.633
1963,1963,32.000,5.657
1964,1964,25.000,5.000
1965,1965,41.000,6.403
1966,1966,44.000,6.633
1967,1967,35.000,5.916
1968,1968,40.000,6.325
1969,1969,60.000,7.746
1970,1970,37.000,6.083
1971,1971,43.000,6.557
1972,1972,28.000,5.292
1973,1973,30.000,5.477
1974,1974,50.000,7.071
1975,1975,57.000,7.550
1976,1976,35.000,5.916
1977,1977,42.000,6.481
1978,1978,35.000,5.916
1979,1979,41.000,6.403
1980,1980,49.000,7.000
1981,1981,50.000,7.071
1982,1982,44.000,6.633
1983,1983,40.000,6.325
1984,1984,39.000,6.245
1985,1985,32.000,5.657
1986,1986,40.000,6.325
1987,1987,39.000,6.245
1988,1988,47.000,6.856
1989,1989,50.000,7.071
1990,1990,24.000,4.899
1991,1991,26.000,5.099
1992,1992,30.000,5.477
1993,1993,29.000,5.385
1994,1994,16.000,4.000
1995,1995,46.000,6.782
1996,1996,30.000,5.477
1997,1997,39.000,6.245
1998,1998,42.000,6.481
1999,1999,39.000,6.245
2000,2000,33.000,5.745
2001,2001,47.000,6.856
2002,2002,48.000,6.928
2003,2003,42.000,6.481
2004,2004,38.000,6.164
2005,2005,52.000,7.211
2006,2006,49.000,7.000
2007,2007,39.000,6.245
2008,2008,36.000,6.000
2009,2009,39.000,6.245
2010,2010,47.000,6.856
2011,2011,28.000,5.292
2012,2012,31.000,5.568
2013,2013,42.000,6.481
2014,2014,41.000,6.403
2015,2015,38.000,6.164
2016,2016,32.000,5.657
2017,2017,39.000,6.245
2018,2018,33.000,5.745
2019,2019,48.000,6.928
2020,2020,32.000,5.657
2021,2021,48.000,6.928
2022,2022,31.000,5.568
2023,2023,27.000,5.196
2024,2024,30.000,5.477
2025,2025,27.000,5.196
2026,2026,30.000,5.477
2027,2027,39.000,6.245
2028,2028,47.000,6.856
2029,2029,39.000,6.245
2030,2030,38.000,6.164
2031,2031,22.000,4.690
2032,2032,22.000,4.690
2033,2033,19.000,4.359
2034,2034,30.000,5.477
2035,2035,51.000,7.141
2036,2036,31.000,5.568
2037,2037,39.000,6.245
2038,2038,36.000,6.000
2039,2039,24.000,4.899
2040,2040,34.000,5.831
2041,2041,22.000,4.690
2042,2042,15.000,3.873
2043,2043,37.000,6.083
2044,2044,32.000,5.657
2045,2045,24.000,4.899
2046,2046,25.000,5.000
2047,2047,29.000,5.385
2048,2048,34.000,5.831
2049,2049,42.000,6.481
2050,2050,43.000,6.557
2051,2051,35.000,5.916
2052,2052,22.000,4.690
2053,2053,30.000,5.477
2054,2054,16.000,4.000
2055,2055,20.000,4.472
2056,2056,20.000,4.472
2057,2057,47.000,6.856
2058,2058,39.000,6.245
2059,2059,21.000,4.583
2060,2060,37.000,6.083
2061,2061,27.000,5.196
2062,2062,47.000,6.856
2063,2063,55.000,7.416
2064,2064,46.000,6.782
2065,2065,44.000,6.633
2066,2066,39.000,6.245
2067,2067,14.000,3.742
2068,2068,21.000,4.583
2069,2069,16.000,4.000
2070,2070,25.000,5.000
2071,2071,37.000,6.083
2072,2072,47.000,6.856
2073,2073,24.000,4.899
2074,2074,37.000,6.083
2075,2075,49.000,7.000
2076,2076,31.000,5.568
2077,2077,26.000,5.099
2078,2078,44.000,6.633
2079,2079,37.000,6.083
2080,2080,35.000,5.916
2081,2081,36.000,6.000
2082,2082,25.000,5.000
2083,2083,21.000,4.583
2084,2084,31.000,5.568
2085,2085,38.000,6.164
2086,2086,33.000,5.745
2087,2087,17.000,4.123
2088,2088,23.000,4.796
2089,2089,21.000,4.583
2090,2090,16.000,4.000
2091,2091,31.000,5.568
2092,2092,25.000,5.000
2093,2093,26.000,5.099
2094,2094,34.000,5.831
2095,2095,31.000,5.568
2096,2096,32.000,5.657
2097,2097,21.000,4.583
2098,2098,19.000,4.359
2099,2099,18.000,4.243
2100,2100,13.000,3.606
2101,2101,23.000,4.796
2102,2102,37.000,6.083
2103,2103,30.000,5.477
2104,2104,29.000,5.385
2105,2105,28.000,5.292
2106,2106,20.000,4.472
2107,2107,35.000,5.916
2108,2108,25.000,5.000
2109,2109,17.000,4.123
2110,2110,23.000,4.796
2111,2111,26.000,5.099
2112,2112,33.000,5.745
2113,2113,30.000,5.477
2114,2114,28.000,5.292
2115,2115,21.000,4.583
2116,2116,17.000,4.123
2117,2117,38.000,6.164
2118,2118,11.000,3.317
2119,2119,27.000,5.196
2120,2120,17.000,4.123
2121,2121,21.000,4.583
2122,2122,32.000,5.657
2123,2123,28.000,5.292
2124,2124,33.000,5.745
2125,2125,38.000,6.164
2126,2126,14.000,3.742
2127,2127,22.000,4.690
2128,2128,20.000,4.472
2129,2129,13.000,3.606
2130,2130,15.000,3.873
2131,2131,30.000,5.477
2132,2132,25.000,5.000
2133,2133,20.000,4.472
2134,2134,25.000,5.000
2135,2135,44.000,6.633
2136,2136,19.000,4.359
2137,2137,23.000,4.796
2138,2138,24.000,4.899
2139,2139,25.000,5.000
2140,2140,20.000,4.472
2141,2141,16.000,4.000
2142,2142,22.000,4.690
2143,2143,13.000,3.606
2144,2144,19.000,4.359
2145,2145,20.000,4.472
2146,2146,20.000,4.472
2147,2147,26.000,5.099
2148,2148,23.000,4.796
2149,2149,20.000,4.472
2150,2150,19.000,4.359
2151,2151,32.000,5.657
2152,2152,14.000,3.742
2153,2153,30.000,5.477
2154,2154,24.000,4.899
2155,2155,16.000,4.000
2156,2156,19.000,4.359
2157,2157,21.000,4.583
2158,2158,31.000,5.568
2159,2159,31.000,5.568
2160,2160,22.000,4.690
2161,2161,20.000,4.472
2162,2162,21.000,4.583
2163,2163,28.000,5.292
2164,2164,19.000,4.359
2165,2165,29.000,5.385
2166,2166,28.000,5.292
2167,2167,18.000,4.243
2168,2168,24.000,4.899
2169,2169,18.000,4.243
2170,2170,31.000,5.568
2171,2171,15.000,3.873
2172,2172,17.000,4.123
2173,2173,19.000,4.359
2174,2174,27.000,5.196
2175,2175,29.000,5.385
2176,2176,21.000,4.583
2177,2177,19.000,4.359
2178,2178,25.000,5.000
2179,2179,28.000,5.292
2180,2180,6.000,2.449
2181,2181,9.000,3.000
2182,2182,19.000,4.359
2183,2183,17.000,4.123
2184,2184,19.000,4.359
2185,2185,15.000,3.873
2186,2186,39.000,6.245
2187,2187,32.000,5.657
2188,2188,22.000,4.690
2189,2189,26.000,5.099
2190,2190,11.000,3.317
2191,2191,15.000,3.873
2192,2192,18.000,4.243
2193,2193,27.000,5.196
2194,2194,8.000,2.828
2195,2195,13.000,3.606
2196,2196,26.000,5.099
2197,2197,25.000,5.000
2198,2198,16.000,4.000
2199,2199,34.000,5.831
2200,2200,18.000,4.243
2201,2201,15.000,3.873
2202,2202,26.000,5.099
2203,2203,20.000,4.472
2204,2204,19.000,4.359
2205,2205,20.000,4.472
2206,2206,22.000,4.690
2207,2207,25.000,5.000
2208,2208,15.000,3.873
2209,2209,19.000,4.359
2210,2210,26.000,5.099
2211,2211,25.000,5.000
2212,2212,15.000,3.873
2213,2213,13.000,3.606
2214,2214,11.000,3.317
2215,2215,34.000,5.831
2216,2216,20.000,4.472
2217,2217,11.000,3.317
2218,2218,20.000,4.472
2219,2219,17.000,4.123
2220,2220,15.000,3.873
2221,2221,23.000,4.796
2222,2222,22.000,4.690
2223,2223,12.000,3.464
2224,2224,37.000,6.083
2225,2225,15.000,3.873
2226,2226,12.000,3.464
2227,2227,15.000,3.873
2228,2228,23.000,4.796
2229,2229,23.000,4.796
2230,2230,19.000,4.359
2231,2231,19.000,4.359
2232,2232,15.000,3.873
2233,2233,20.000,4.472
2234,2234,21.000,4.583
2235,2235,26.000,5.099
2236,2236,12.000,3.464
2237,2237,18.000,4.243
2238,2238,22.000,4.690
2239,2239,11.000,3.317
2240,2240,17.000,4.123
2241,2241,19.000,4.359
2242,2242,7.000,2.646
2243,2243,29.000,5.385
2244,2244,9.000,3.000
2245,2245,17.000,4.123
2246,2246,9.000,3.000
2247,2247,21.000,4.583
2248,2248,16.000,4.000
2249,2249,23.000,4.796
2250,2250,35.000,5.916
2251,2251,24.000,4.899
2252,2252,8.000,2.828
2253,2253,5.000,2.236
2254,2254,17.000,4.123
2255,2255,16.000,4.000
2256,2256,18.000,4.243
2257,2257,18.000,4.243
2258,2258,12.000,3.464
2259,2259,5.000,2.236
2260,2260,10.000,3.162
2261,2261,11.000,3.317
2262,2262,11.000,3.317
2263,2263,12.000,3.464
2264,2264,13.000,3.606
2265,2265,16.000,4.000
2266,2266,9.000,3.000
2267,2267,9.000,3.000
2268,2268,13.000,3.606
2269,2269,20.000,4.472
2270,2270,7.000,2.646
2271,2271,15.000,3.873
2272,2272,12.000,3.464
2273,2273,14.000,3.742
2274,2274,7.000,2.646
2275,2275,7.000,2.646
2276,2276,9.000,3.000
2277,2277,10.000,3.162
2278,2278,8.000,2.828
2279,2279,16.000,4.000
2280,2280,19.000,4.359
2281,2281,16.000,4.000
2282,2282,19.000,4.359
2283,2283,10.000,3.162
2284,2284,18.000,4.243
2285,2285,12.000,3.464
2286,2286,22.000,4.690
2287,2287,15.000,3.873
2288,2288,17.000,4.123
2289,2289,4.000,2.000
2290,2290,22.000,4.690
2291,2291,14.000,3.742
2292,2292,16.000,4.000
2293,2293,15.000,3.873
2294,2294,19.000,4.359
2295,2295,20.000,4.472
2296,2296,16.000,4.000
2297,2297,9.000,3.000
2298,2298,18.000,4.243
2299,2299,15.000,3.873
2300,2300,17.000,4.123
2301,2301,14.000,3.742
2302,2302,22.000,4.690
2303,2303,10.000,3.162
2304,2304,14.000,3.742
2305,2305,29.000,5.385
2306,2306,10.000,3.162
2307,2307,11.000,3.317
2308,2308,20.000,4.472
2309,2309,18.000,4.243
2310,2310,4.000,2.000
2311,2311,25.000,5.000
2312,2312,10.000,3.162
2313,2313,19.000,4.359
2314,2314,8.000,2.828
2315,2315,2.000,1.414
2316,2316,10.000,3.162
2317,2317,11.000,3.317
2318,2318,6.000,2.449
2319,2319,18.000,4.243
2320,2320,12.000,3.464
2321,2321,18.000,4.243
2322,2322,3.000,1.732
2323,2323,7.000,2.646
2324,2324,11.000,3.317
2325,2325,21.000,4.583
2326,2326,10.000,3.162
2327,2327,18.000,4.243
2328,2328,23.000,4.796
2329,2329,16.000,4.000
2330,2330,15.000,3.873
2331,2331,6.000,2.449
2332,2332,15.000,3.873
2333,2333,9.000,3.000
2334,2334,16.000,4.000
2335,2335,3.000,1.732
2336,2336,13.000,3.606
2337,2337,12.000,3.464
2338,2338,27.000,5.196
2339,2339,6.000,2.449
2340,2340,11.000,3.317
2341,2341,10.000,3.162
2342,2342,17.000,4.123
2343,2343,11.000,3.317
2344,2344,8.000,2.828
2345,2345,15.000,3.873
2346,2346,20.000,4.472
2347,2347,14.000,3.742
2348,2348,15.000,3.873
2349,2349,15.000,3.873
2350,2350,11.000,3.317
2351,2351,14.000,3.742
2352,2352,6.000,2.449
2353,2353,10.000,3.162
2354,2354,13.000,3.606
2355,2355,15.000,3.873
2356,2356,22.000,4.690
2357,2357,25.000,5.000
2358,2358,6.000,2.449
2359,2359,1.000,1.000
2360,2360,11.000,3.317
2361,2361,8.000,2.828
2362,2362,26.000,5.099
2363,2363,24.000,4.899
2364,2364,14.000,3.742
2365,2365,12.000,3.464
2366,2366,8.000,2.828
2367,2367,8.000,2.828
2368,2368,3.000,1.732
2369,2369,13.000,3.606
2370,2370,1.000,1.000
2371,2371,5.000,2.236
2372,2372,7.000,2.646
2373,2373,10.000,3.162
2374,2374,11.000,3.317
2375,2375,5.000,2.236
2376,2376,16.000,4.000
2377,2377,9.000,3.000
2378,2378,9.000,3.000
2379,2379,15.000,3.873
2380,2380,13.000,3.606
2381,2381,6.000,2.449
2382,2382,7.000,2.646
2383,2383,3.000,1.732
2384,2384,24.000,4.899
2385,2385,18.000,4.243
2386,2386,11.000,3.317
2387,2387,6.000,2.449
2388,2388,12.000,3.464
2389,2389,6.000,2.449
2390,2390,1.000,1.000
2391,2391,12.000,3.464
2392,2392,12.000,3.464
2393,2393,8.000,2.828
2394,2394,25.000,5.000
2395,2395,19.000,4.359
2396,2396,4.000,2.000
2397,2397,8.000,2.828
2398,2398,4.000,2.000
2399,2399,9.000,3.000
2400,2400,14.000,3.742
